# Step     T (K)     E_KS (eV)    E_tot (eV)   Vol (A^3)    P (kBar)
     1   3656.68    -898.12978    -896.71179    1000.001       3.481
     2   4051.46    -898.32924    -896.75816    1000.001       2.982
     3   4281.92    -898.42146    -896.76102    1000.001       2.066
     4   3909.80    -898.25757    -896.74142    1000.001       1.491
     5   3517.28    -898.09625    -896.73233    1000.001       1.114
     6   3491.88    -898.08599    -896.73191    1000.001       1.035
     7   3853.39    -898.23396    -896.73969    1000.001       1.394
     8   4257.70    -898.40950    -896.75845    1000.001       2.309
     9   4113.87    -898.35640    -896.76113    1000.001       3.637
    10   3700.72    -898.14810    -896.71303    1000.001       4.259
    11   4067.45    -898.33093    -896.75366    1000.001       3.021
    12   4404.01    -898.47079    -896.76301    1000.001       1.372
    13   4106.93    -898.33581    -896.74323    1000.001       0.143
    14   3712.98    -898.17288    -896.73306    1000.001      -0.773
    15   3642.17    -898.14414    -896.73178    1000.001      -1.255
    16   3951.55    -898.27071    -896.73838    1000.001      -1.141
    17   4345.30    -898.44111    -896.75608    1000.001      -0.301
    18   4231.73    -898.40542    -896.76444    1000.001       1.176
    19   3721.77    -898.15921    -896.71599    1000.001       2.323
    20   3957.40    -898.28295    -896.74835    1000.001       1.792
    21   4312.05    -898.43802    -896.76589    1000.001       0.801
    22   3991.96    -898.29451    -896.74651    1000.001       0.333
    23   3468.66    -898.08111    -896.73604    1000.001       0.239
    24   3175.49    -897.96664    -896.73525    1000.001       0.586
    25   3176.25    -897.97308    -896.74139    1000.001       1.503
    26   3225.66    -898.00680    -896.75595    1000.001       3.077
    27   2825.58    -897.86270    -896.76699    1000.001       5.210
    28   1917.01    -897.47369    -896.73031    1000.001       7.105
    29   1572.67    -897.34405    -896.73420    1000.001       7.329
    30   1795.08    -897.45957    -896.76347    1000.001       6.301
    31   1715.14    -897.42030    -896.75520    1000.001       5.189
    32   1451.58    -897.31257    -896.74967    1000.001       4.093
    33   1337.41    -897.26804    -896.74942    1000.001       3.105
    34   1502.06    -897.33155    -896.74908    1000.001       2.347
    35   1960.13    -897.50813    -896.74803    1000.001       1.899
    36   2635.77    -897.77315    -896.75105    1000.001       1.852
    37   3235.93    -898.02005    -896.76522    1000.001       2.317
    38   3233.06    -898.02094    -896.76722    1000.001       3.196
    39   2929.53    -897.85055    -896.71454    1000.001       3.458
    40   3459.32    -898.09866    -896.75720    1000.001       1.935
    41   3957.07    -898.30251    -896.76804    1000.001       0.111
    42   3730.23    -898.19366    -896.74715    1000.001      -1.180
    43   3336.57    -898.02956    -896.73570    1000.001      -2.096
    44   3243.90    -897.99057    -896.73265    1000.001      -2.550
    45   3574.32    -898.12308    -896.73703    1000.001      -2.392
    46   4110.40    -898.34782    -896.75389    1000.001      -1.478
    47   4228.82    -898.41274    -896.77289    1000.001       0.235
    48   3697.63    -898.15911    -896.72524    1000.001       1.983
    49   3830.09    -898.22250    -896.73727    1000.001       1.975
    50   4407.11    -898.48237    -896.77338    1000.001       0.968
    51   4233.33    -898.39343    -896.75183    1000.001       0.457
    52   3715.86    -898.17783    -896.73690    1000.001       0.261
    53   3443.66    -898.06817    -896.73279    1000.001       0.359
    54   3609.01    -898.13540    -896.73589    1000.001       0.868
    55   4055.75    -898.32294    -896.75021    1000.001       1.897
    56   4219.60    -898.40845    -896.77217    1000.001       3.491
    57   3675.44    -898.16340    -896.73814    1000.001       5.067
    58   3587.03    -898.11500    -896.72402    1000.001       4.847
    59   4201.08    -898.40303    -896.77394    1000.001       3.029
    60   4167.66    -898.37208    -896.75594    1000.001       1.467
    61   3679.80    -898.16591    -896.73895    1000.001       0.193
    62   3370.07    -898.04058    -896.73373    1000.001      -0.787
    63   3482.52    -898.08646    -896.73601    1000.001      -1.279
    64   3908.08    -898.26379    -896.74831    1000.001      -1.101
    65   4135.78    -898.37493    -896.77116    1000.001      -0.127
    66   3613.15    -898.15088    -896.74977    1000.001       1.251
    67   3297.63    -897.99258    -896.71383    1000.001       1.354
    68   3848.82    -898.26407    -896.77157    1000.001      -0.191
    69   3903.55    -898.27172    -896.75800    1000.001      -1.428
    70   3439.03    -898.07221    -896.73862    1000.001      -2.178
    71   3128.22    -897.94520    -896.73214    1000.001      -2.540
    72   3270.69    -898.00198    -896.73368    1000.001      -2.359
    73   3792.92    -898.21558    -896.74476    1000.001      -1.484
    74   4221.86    -898.40531    -896.76816    1000.001       0.203
    75   3906.45    -898.27420    -896.75936    1000.001       2.410
    76   3535.09    -898.07981    -896.70898    1000.001       3.580
    77   4070.80    -898.34768    -896.76910    1000.001       2.813
    78   4226.61    -898.40150    -896.76250    1000.001       2.028
    79   3738.71    -898.19064    -896.74084    1000.001       1.585
    80   3306.71    -898.01459    -896.73231    1000.001       1.289
    81   3309.60    -898.01582    -896.73243    1000.001       1.251
    82   3739.81    -898.19186    -896.74163    1000.001       1.619
    83   4193.18    -898.39000    -896.76397    1000.001       2.545
    84   3980.37    -898.30934    -896.76583    1000.001       3.890
    85   3515.98    -898.07088    -896.70745    1000.001       4.350
    86   3985.73    -898.30953    -896.76394    1000.001       2.710
    87   4270.33    -898.42263    -896.76668    1000.001       0.838
    88   3829.28    -898.22889    -896.74397    1000.001      -0.546
    89   3335.04    -898.02722    -896.73396    1000.001      -1.611
    90   3223.95    -897.98317    -896.73299    1000.001      -2.210
    91   3542.19    -898.11392    -896.74033    1000.001      -2.169
    92   3959.54    -898.29601    -896.76058    1000.001      -1.336
    93   3799.83    -898.24377    -896.77027    1000.001       0.217
    94   3234.96    -897.96485    -896.71040    1000.001       1.351
    95   3599.43    -898.15132    -896.75553    1000.001       0.520
    96   4047.38    -898.33915    -896.76966    1000.001      -0.728
    97   3767.79    -898.20791    -896.74684    1000.001      -1.396
    98   3363.35    -898.03987    -896.73563    1000.001      -1.697
    99   3310.03    -898.01768    -896.73411    1000.001      -1.545
   100   3682.58    -898.16840    -896.74037    1000.001      -0.794
   101   4192.33    -898.38470    -896.75900    1000.001       0.681
   102   4172.78    -898.39256    -896.77444    1000.001       2.828
   103   3556.18    -898.09833    -896.71931    1000.001       4.669
   104   3721.88    -898.18996    -896.74669    1000.001       4.422
   105   4183.04    -898.39460    -896.77250    1000.001       3.207
   106   3911.43    -898.26613    -896.74935    1000.001       2.302
   107   3431.90    -898.06687    -896.73605    1000.001       1.515
   108   3285.17    -898.00748    -896.73356    1000.001       0.917
   109   3595.68    -898.13303    -896.73869    1000.001       0.703
   110   4125.42    -898.35535    -896.75560    1000.001       1.071
   111   4235.75    -898.41820    -896.77567    1000.001       2.102
   112   3641.49    -898.14231    -896.73021    1000.001       3.098
   113   3647.33    -898.15105    -896.73669    1000.001       2.280
   114   4144.23    -898.38249    -896.77544    1000.001       0.351
   115   3917.38    -898.27303    -896.75395    1000.001      -1.070
   116   3357.42    -898.04034    -896.73840    1000.001      -2.097
   117   3072.53    -897.92565    -896.73418    1000.001      -2.708
   118   3260.89    -898.00214    -896.73764    1000.001      -2.732
   119   3757.71    -898.20942    -896.75226    1000.001      -2.014
   120   3985.15    -898.31998    -896.77461    1000.001      -0.471
   121   3498.48    -898.09767    -896.74103    1000.001       1.330
   122   3448.04    -898.06318    -896.72610    1000.001       1.607
   123   4098.49    -898.36533    -896.77602    1000.001       0.506
   124   4100.47    -898.34816    -896.75808    1000.001      -0.167
   125   3643.27    -898.15366    -896.74087    1000.001      -0.436
   126   3362.61    -898.03957    -896.73562    1000.001      -0.367
   127   3503.47    -898.09642    -896.73784    1000.001       0.164
   128   3955.65    -898.28411    -896.75019    1000.001       1.268
   129   4209.22    -898.40513    -896.77288    1000.001       3.001
   130   3720.23    -898.19400    -896.75137    1000.001       4.915
   131   3451.85    -898.05481    -896.71625    1000.001       5.296
   132   4047.26    -898.34318    -896.77373    1000.001       3.773
   133   4137.66    -898.36495    -896.76045    1000.001       2.310
   134   3692.52    -898.17349    -896.74160    1000.001       1.107
   135   3370.43    -898.04229    -896.73531    1000.001       0.112
   136   3463.59    -898.07995    -896.73684    1000.001      -0.476
   137   3901.41    -898.26054    -896.74765    1000.001      -0.462
   138   4222.67    -898.40793    -896.77046    1000.001       0.314
   139   3799.37    -898.23415    -896.76083    1000.001       1.595
   140   3346.95    -898.00843    -896.71055    1000.001       1.859
   141   3827.23    -898.25449    -896.77037    1000.001       0.280
   142   3959.75    -898.29905    -896.76354    1000.001      -1.184
   143   3487.34    -898.09476    -896.74244    1000.001      -2.126
   144   3095.86    -897.93494    -896.73443    1000.001      -2.696
   145   3146.99    -897.95521    -896.73487    1000.001      -2.737
   146   3619.26    -898.14766    -896.74418    1000.001      -2.100
   147   4101.72    -898.35709    -896.76653    1000.001      -0.650
   148   3910.56    -898.28407    -896.76763    1000.001       1.439
   149   3476.96    -898.05801    -896.70971    1000.001       2.796
   150   3973.63    -898.30707    -896.76617    1000.001       2.171
   151   4276.66    -898.42712    -896.76871    1000.001       1.358
   152   3858.92    -898.24271    -896.74630    1000.001       0.995
   153   3392.34    -898.05182    -896.73634    1000.001       0.844
   154   3312.56    -898.01984    -896.73530    1000.001       0.987
   155   3666.43    -898.16437    -896.74260    1000.001       1.544
   156   4121.47    -898.36125    -896.76302    1000.001       2.636
   157   3998.78    -898.32287    -896.77223    1000.001       4.175
   158   3475.69    -898.06081    -896.71300    1000.001       5.033
   159   3861.02    -898.25647    -896.75924    1000.001       3.709
   160   4281.03    -898.43287    -896.77277    1000.001       1.813
   161   3941.26    -898.27825    -896.74991    1000.001       0.364
   162   3452.87    -898.07749    -896.73854    1000.001      -0.804
   163   3300.70    -898.01662    -896.73667    1000.001      -1.562
   164   3573.69    -898.12841    -896.74261    1000.001      -1.726
   165   3997.30    -898.31110    -896.76103    1000.001      -1.129
   166   3917.93    -898.29520    -896.77590    1000.001       0.223
   167   3292.58    -897.99713    -896.72033    1000.001       1.381
   168   3488.51    -898.10222    -896.74945    1000.001       0.635
   169   3979.16    -898.31771    -896.77467    1000.001      -0.817
   170   3746.60    -898.20482    -896.75196    1000.001      -1.692
   171   3311.17    -898.02293    -896.73893    1000.001      -2.182
   172   3203.63    -897.97879    -896.73649    1000.001      -2.224
   173   3545.19    -898.11635    -896.74159    1000.001      -1.663
   174   4097.29    -898.34737    -896.75852    1000.001      -0.360
   175   4224.30    -898.41630    -896.77821    1000.001       1.698
   176   3657.96    -898.15085    -896.73237    1000.001       3.728
   177   3699.44    -898.17469    -896.74012    1000.001       3.895
   178   4215.24    -898.41227    -896.77769    1000.001       2.858
   179   4011.60    -898.31161    -896.75599    1000.001       2.148
   180   3488.85    -898.09343    -896.74052    1000.001       1.603
   181   3248.79    -897.99636    -896.73655    1000.001       1.218
   182   3480.67    -898.09005    -896.74032    1000.001       1.155
   183   4008.90    -898.30972    -896.75515    1000.001       1.589
   184   4245.30    -898.42383    -896.77759    1000.001       2.630
   185   3737.70    -898.19385    -896.74444    1000.001       3.761
   186   3625.54    -898.13486    -896.72895    1000.001       3.246
   187   4182.69    -898.40050    -896.77853    1000.001       1.268
   188   4081.18    -898.34272    -896.76012    1000.001      -0.326
   189   3523.90    -898.10903    -896.74253    1000.001      -1.514
   190   3162.83    -897.96347    -896.73699    1000.001      -2.317
   191   3255.86    -898.00174    -896.73919    1000.001      -2.570
   192   3696.80    -898.18525    -896.75170    1000.001      -2.107
   193   3970.98    -898.31456    -896.77469    1000.001      -0.818
   194   3521.84    -898.11945    -896.75375    1000.001       0.891
   195   3294.62    -897.99623    -896.71865    1000.001       1.340
   196   3927.72    -898.29926    -896.77616    1000.001       0.153
   197   4052.53    -898.33456    -896.76308    1000.001      -0.728
   198   3635.89    -898.15395    -896.74403    1000.001      -1.136
   199   3339.12    -898.03253    -896.73769    1000.001      -1.182
   200   3457.06    -898.07972    -896.73914    1000.001      -0.735
